"1500from5 - RawData"
"Wavelength nm.","T%"
190.00,0.0339
192.00,0.0338
194.00,0.0341
196.00,0.0363
198.00,0.0379
200.00,0.0390
202.00,0.0387
204.00,0.0393
206.00,0.0395
208.00,0.0400
210.00,0.0402
212.00,0.0409
214.00,0.0410
216.00,0.0412
218.00,0.0407
220.00,0.0409
222.00,0.0409
224.00,0.0414
226.00,0.0409
228.00,0.0409
230.00,0.0409
232.00,0.0415
234.00,0.0420
236.00,0.0425
238.00,0.0422
240.00,0.0419
242.00,0.0417
244.00,0.0419
246.00,0.0417
248.00,0.0417
250.00,0.0416
252.00,0.0419
254.00,0.0418
256.00,0.0419
258.00,0.0416
260.00,0.0416
262.00,0.0414
264.00,0.0415
266.00,0.0418
268.00,0.0424
270.00,0.0423
272.00,0.0422
274.00,0.0423
276.00,0.0424
278.00,0.0427
280.00,0.0423
282.00,0.0424
284.00,0.0420
286.00,0.0420
288.00,0.0416
290.00,0.0416
292.00,0.0417
294.00,0.0381
296.00,0.0338
298.00,0.0301
300.00,0.0297
302.00,0.0294
304.00,0.0286
306.00,0.0285
308.00,0.0292
310.00,0.0296
312.00,0.0302
314.00,0.0302
316.00,0.0296
318.00,0.0288
320.00,0.0284
322.00,0.0281
324.00,0.0280
326.00,0.0277
328.00,0.0279
330.00,0.0280
332.00,0.0284
334.00,0.0286
336.00,0.0284
338.00,0.0291
340.00,0.0289
342.00,0.0290
344.00,0.0283
346.00,0.0285
348.00,0.0282
350.00,0.0278
352.00,0.0283
354.00,0.0287
356.00,0.0292
358.00,0.0288
360.00,0.0285
362.00,0.0285
364.00,0.0284
366.00,0.0286
368.00,0.0285
370.00,0.0290
372.00,0.0291
374.00,0.0290
376.00,0.0288
378.00,0.0287
380.00,0.0288
382.00,0.0288
384.00,0.0289
386.00,0.0290
388.00,0.0289
390.00,0.0287
392.00,0.0286
394.00,0.0286
396.00,0.0288
398.00,0.0290
400.00,0.0285
402.00,0.0283
404.00,0.0283
406.00,0.0291
408.00,0.0294
410.00,0.0293
412.00,0.0291
414.00,0.0288
416.00,0.0287
418.00,0.0287
420.00,0.0293
422.00,0.0296
424.00,0.0299
426.00,0.0296
428.00,0.0295
430.00,0.0287
432.00,0.0285
434.00,0.0286
436.00,0.0285
438.00,0.0278
440.00,0.0280
442.00,0.0282
444.00,0.0287
446.00,0.0288
448.00,0.0291
450.00,0.0291
452.00,0.0281
454.00,0.0274
456.00,0.0271
458.00,0.0275
460.00,0.0275
462.00,0.0279
464.00,0.0281
466.00,0.0286
468.00,0.0291
470.00,0.0291
472.00,0.0291
474.00,0.0285
476.00,0.0287
478.00,0.0285
480.00,0.0284
482.00,0.0278
484.00,0.0276
486.00,0.0278
488.00,0.0274
490.00,0.0278
492.00,0.0282
494.00,0.0286
496.00,0.0285
498.00,0.0279
500.00,0.0281
502.00,0.0280
504.00,0.0282
506.00,0.0281
508.00,0.0283
510.00,0.0284
512.00,0.0283
514.00,0.0283
516.00,0.0280
518.00,0.0283
520.00,0.0277
522.00,0.0280
524.00,0.0279
526.00,0.0284
528.00,0.0285
530.00,0.0283
532.00,0.0282
534.00,0.0284
536.00,0.0284
538.00,0.0280
540.00,0.0278
542.00,0.0279
544.00,0.0285
546.00,0.0285
548.00,0.0287
550.00,0.0288
552.00,0.0291
554.00,0.0288
556.00,0.0285
558.00,0.0277
560.00,0.0275
562.00,0.0274
564.00,0.0278
566.00,0.0285
568.00,0.0289
570.00,0.0290
572.00,0.0283
574.00,0.0277
576.00,0.0279
578.00,0.0280
580.00,0.0286
582.00,0.0282
584.00,0.0285
586.00,0.0280
588.00,0.0283
590.00,0.0280
592.00,0.0282
594.00,0.0277
596.00,0.0278
598.00,0.0281
600.00,0.0283
602.00,0.0283
604.00,0.0276
606.00,0.0276
608.00,0.0279
610.00,0.0283
612.00,0.0282
614.00,0.0275
616.00,0.0276
618.00,0.0278
620.00,0.0284
622.00,0.0279
624.00,0.0275
626.00,0.0276
628.00,0.0281
630.00,0.0287
632.00,0.0283
634.00,0.0288
636.00,0.0285
638.00,0.0291
640.00,0.0292
642.00,0.0285
644.00,0.0284
646.00,0.0274
648.00,0.0284
650.00,0.0283
652.00,0.0292
654.00,0.0290
656.00,0.0293
658.00,0.0290
660.00,0.0296
662.00,0.0292
664.00,0.0290
666.00,0.0282
668.00,0.0280
670.00,0.0278
672.00,0.0282
674.00,0.0282
676.00,0.0284
678.00,0.0284
680.00,0.0288
682.00,0.0288
684.00,0.0292
686.00,0.0297
688.00,0.0300
690.00,0.0304
692.00,0.0303
694.00,0.0306
696.00,0.0299
698.00,0.0304
700.00,0.0305
702.00,0.0312
704.00,0.0310
706.00,0.0308
708.00,0.0311
710.00,0.0314
712.00,0.0316
714.00,0.0318
716.00,0.0314
718.00,0.0315
720.00,0.0364
722.00,0.0420
724.00,0.0475
726.00,0.0477
728.00,0.0477
730.00,0.0481
732.00,0.0481
734.00,0.0486
736.00,0.0486
738.00,0.0493
740.00,0.0492
742.00,0.0496
744.00,0.0502
746.00,0.0506
748.00,0.0510
750.00,0.0509
752.00,0.0510
754.00,0.0506
756.00,0.0501
758.00,0.0495
760.00,0.0489
762.00,0.0485
764.00,0.0481
766.00,0.0481
768.00,0.0484
770.00,0.0484
772.00,0.0484
774.00,0.0475
776.00,0.0477
778.00,0.0473
780.00,0.0477
782.00,0.0475
784.00,0.0479
786.00,0.0477
788.00,0.0476
790.00,0.0477
792.00,0.0479
794.00,0.0478
796.00,0.0478
798.00,0.0477
800.00,0.0477
802.00,0.0473
804.00,0.0472
806.00,0.0470
808.00,0.0474
810.00,0.0471
812.00,0.0469
814.00,0.0465
816.00,0.0469
818.00,0.0477
820.00,0.0481
822.00,0.0483
824.00,0.0476
826.00,0.0473
828.00,0.0469
830.00,0.0499
832.00,0.0502
834.00,0.0521
836.00,0.0518
838.00,0.0517
840.00,0.0516
842.00,0.0514
844.00,0.0517
846.00,0.0521
848.00,0.0522
850.00,0.0528
852.00,0.0496
854.00,0.0486
856.00,0.0474
858.00,0.0507
860.00,0.0511
862.00,0.0529
864.00,0.0525
866.00,0.0538
868.00,0.0517
870.00,0.0525
872.00,0.0533
874.00,0.0543
876.00,0.0538
878.00,0.0529
880.00,0.0529
882.00,0.0513
884.00,0.0505
886.00,0.0509
888.00,0.0509
890.00,0.0499
892.00,0.0503
894.00,0.0543
896.00,0.0563
898.00,0.0560
900.00,0.0531
902.00,0.0514
904.00,0.0508
906.00,0.0513
908.00,0.0517
910.00,0.0514
912.00,0.0509
914.00,0.0525
916.00,0.0544
918.00,0.0557
920.00,0.0536
922.00,0.0529
924.00,0.0511
926.00,0.0510
928.00,0.0503
930.00,0.0523
932.00,0.0536
934.00,0.0528
936.00,0.0521
938.00,0.0534
940.00,0.0539
942.00,0.0531
944.00,0.0513
946.00,0.0502
948.00,0.0508
950.00,0.0509
952.00,0.0521
954.00,0.0536
956.00,0.0538
958.00,0.0536
960.00,0.0526
962.00,0.0524
964.00,0.0529
966.00,0.0529
968.00,0.0530
970.00,0.0530
972.00,0.0532
974.00,0.0536
976.00,0.0538
978.00,0.0543
980.00,0.0537
982.00,0.0531
984.00,0.0522
986.00,0.0522
988.00,0.0523
990.00,0.0532
992.00,0.0534
994.00,0.0534
996.00,0.0529
998.00,0.0526
1000.00,0.0525
1002.00,0.0518
1004.00,0.0516
1006.00,0.0515
1008.00,0.0518
1010.00,0.0521
1012.00,0.0522
1014.00,0.0523
1016.00,0.0524
1018.00,0.0525
1020.00,0.0525
1022.00,0.0523
1024.00,0.0521
1026.00,0.0524
1028.00,0.0527
1030.00,0.0527
1032.00,0.0528
1034.00,0.0529
1036.00,0.0535
1038.00,0.0537
1040.00,0.0536
1042.00,0.0538
1044.00,0.0541
1046.00,0.0552
1048.00,0.0566
1050.00,0.0586
1052.00,0.0620
1054.00,0.0646
1056.00,0.0669
1058.00,0.0672
1060.00,0.0659
1062.00,0.0632
1064.00,0.0601
1066.00,0.0580
1068.00,0.0566
1070.00,0.0554
1072.00,0.0550
1074.00,0.0550
1076.00,0.0554
1078.00,0.0555
1080.00,0.0555
1082.00,0.0555
1084.00,0.0556
1086.00,0.0559
1088.00,0.0559
1090.00,0.0556
1092.00,0.0555
1094.00,0.0553
1096.00,0.0552
1098.00,0.0551
1100.00,0.0550
1102.00,0.0556
1104.00,0.0558
1106.00,0.0561
1108.00,0.0557
1110.00,0.0559
1112.00,0.0557
1114.00,0.0557
1116.00,0.0556
1118.00,0.0558
1120.00,0.0556
1122.00,0.0554
1124.00,0.0553
1126.00,0.0551
1128.00,0.0548
1130.00,0.0542
1132.00,0.0540
1134.00,0.0537
1136.00,0.0536
1138.00,0.0536
1140.00,0.0536
1142.00,0.0536
1144.00,0.0535
1146.00,0.0538
1148.00,0.0536
1150.00,0.0534
1152.00,0.0529
1154.00,0.0525
1156.00,0.0522
1158.00,0.0520
1160.00,0.0516
1162.00,0.0511
1164.00,0.0509
1166.00,0.0511
1168.00,0.0513
1170.00,0.0512
1172.00,0.0516
1174.00,0.0520
1176.00,0.0528
1178.00,0.0538
1180.00,0.0555
1182.00,0.0578
1184.00,0.0602
1186.00,0.0623
1188.00,0.0637
1190.00,0.0640
1192.00,0.0633
1194.00,0.0620
1196.00,0.0605
1198.00,0.0597
1200.00,0.0593
1202.00,0.0590
1204.00,0.0588
1206.00,0.0587
1208.00,0.0587
1210.00,0.0590
1212.00,0.0591
1214.00,0.0595
1216.00,0.0597
1218.00,0.0602
1220.00,0.0603
1222.00,0.0606
1224.00,0.0607
1226.00,0.0609
1228.00,0.0610
1230.00,0.0614
1232.00,0.0617
1234.00,0.0620
1236.00,0.0623
1238.00,0.0625
1240.00,0.0629
1242.00,0.0630
1244.00,0.0631
1246.00,0.0633
1248.00,0.0634
1250.00,0.0641
1252.00,0.0642
1254.00,0.0644
1256.00,0.0648
1258.00,0.0651
1260.00,0.0654
1262.00,0.0655
1264.00,0.0658
1266.00,0.0662
1268.00,0.0665
1270.00,0.0667
1272.00,0.0669
1274.00,0.0668
1276.00,0.0672
1278.00,0.0674
1280.00,0.0680
1282.00,0.0682
1284.00,0.0687
1286.00,0.0690
1288.00,0.0694
1290.00,0.0697
1292.00,0.0700
1294.00,0.0702
1296.00,0.0704
1298.00,0.0706
1300.00,0.0712
1302.00,0.0713
1304.00,0.0719
1306.00,0.0720
1308.00,0.0725
1310.00,0.0728
1312.00,0.0735
1314.00,0.0742
1316.00,0.0748
1318.00,0.0753
1320.00,0.0761
1322.00,0.0771
1324.00,0.0781
1326.00,0.0793
1328.00,0.0807
1330.00,0.0829
1332.00,0.0852
1334.00,0.0878
1336.00,0.0905
1338.00,0.0936
1340.00,0.0971
1342.00,0.1004
1344.00,0.1029
1346.00,0.1045
1348.00,0.1050
1350.00,0.1044
1352.00,0.1022
1354.00,0.0991
1356.00,0.0955
1358.00,0.0920
1360.00,0.0885
1362.00,0.0853
1364.00,0.0825
1366.00,0.0800
1368.00,0.0785
1370.00,0.0778
1372.00,0.0774
1374.00,0.0769
1376.00,0.0763
1378.00,0.0760
1380.00,0.0757
1382.00,0.0757
1384.00,0.0755
1386.00,0.0757
1388.00,0.0760
1390.00,0.0766
1392.00,0.0773
1394.00,0.0778
1396.00,0.0778
1398.00,0.0780
1400.00,0.0781
1402.00,0.0783
1404.00,0.0783
1406.00,0.0789
1408.00,0.0792
1410.00,0.0796
1412.00,0.0799
1414.00,0.0805
1416.00,0.0811
1418.00,0.0817
1420.00,0.0828
1422.00,0.0834
1424.00,0.0842
1426.00,0.0848
1428.00,0.0859
1430.00,0.0864
1432.00,0.0869
1434.00,0.0871
1436.00,0.0878
1438.00,0.0877
1440.00,0.0883
1442.00,0.0885
1444.00,0.0893
1446.00,0.0899
1448.00,0.0903
1450.00,0.0907
1452.00,0.0913
1454.00,0.0925
1456.00,0.0930
1458.00,0.0937
1460.00,0.0941
1462.00,0.0951
1464.00,0.0959
1466.00,0.0965
1468.00,0.0974
1470.00,0.0983
1472.00,0.0993
1474.00,0.1001
1476.00,0.1011
1478.00,0.1017
1480.00,0.1024
1482.00,0.1033
1484.00,0.1044
1486.00,0.1052
1488.00,0.1057
1490.00,0.1068
1492.00,0.1076
1494.00,0.1087
1496.00,0.1095
1498.00,0.1108
1500.00,0.1113
1502.00,0.1119
1504.00,0.1123
1506.00,0.1130
1508.00,0.1141
1510.00,0.1148
1512.00,0.1157
1514.00,0.1164
1516.00,0.1170
1518.00,0.1179
1520.00,0.1184
1522.00,0.1193
1524.00,0.1200
1526.00,0.1207
1528.00,0.1215
1530.00,0.1224
1532.00,0.1232
1534.00,0.1239
1536.00,0.1244
1538.00,0.1254
1540.00,0.1263
1542.00,0.1271
1544.00,0.1280
1546.00,0.1288
1548.00,0.1297
1550.00,0.1307
1552.00,0.1319
1554.00,0.1330
1556.00,0.1339
1558.00,0.1346
1560.00,0.1354
1562.00,0.1362
1564.00,0.1373
1566.00,0.1380
1568.00,0.1393
1570.00,0.1399
1572.00,0.1407
1574.00,0.1407
1576.00,0.1416
1578.00,0.1431
1580.00,0.1446
1582.00,0.1455
1584.00,0.1465
1586.00,0.1470
1588.00,0.1475
1590.00,0.1475
1592.00,0.1479
1594.00,0.1482
1596.00,0.1483
1598.00,0.1483
1600.00,0.1480
1602.00,0.1474
1604.00,0.1470
1606.00,0.1468
1608.00,0.1472
1610.00,0.1476
1612.00,0.1470
1614.00,0.1469
1616.00,0.1472
1618.00,0.1483
1620.00,0.1490
1622.00,0.1500
1624.00,0.1515
1626.00,0.1532
1628.00,0.1536
1630.00,0.1537
1632.00,0.1541
1634.00,0.1551
1636.00,0.1555
1638.00,0.1554
1640.00,0.1552
1642.00,0.1545
1644.00,0.1541
1646.00,0.1532
1648.00,0.1523
1650.00,-1.9512
1652.00,-4.1799
1654.00,-6.2355
1656.00,-6.1774
1658.00,-6.3939
1660.00,-6.5502
1662.00,-6.5276
1664.00,-6.3114
1666.00,-6.1861
1668.00,-6.1735
1670.00,-6.3860
1672.00,-6.4593
1674.00,-6.8728
1676.00,-6.4023
1678.00,-6.6070
1680.00,-6.6298
1682.00,-7.0059
1684.00,-6.6268
1686.00,-6.4486
1688.00,-6.1898
1690.00,-6.6480
1692.00,-6.6794
1694.00,-6.8741
1696.00,-6.6019
1698.00,-6.3256
1700.00,-6.5027
1702.00,-6.7122
1704.00,-6.6411
1706.00,-6.2115
1708.00,-6.1838
1710.00,-6.8054
1712.00,-6.8015
1714.00,-6.8396
1716.00,-6.4930
1718.00,-6.8405
1720.00,-6.7036
1722.00,-6.6733
1724.00,-6.3779
1726.00,-6.3060
1728.00,-6.0243
1730.00,-6.4547
1732.00,-6.2011
1734.00,-6.5533
1736.00,-6.4371
1738.00,-6.7322
1740.00,-6.7616
1742.00,-7.0735
1744.00,-6.7237
1746.00,-6.4402
1748.00,-6.1881
1750.00,-6.6579
1752.00,-6.5888
1754.00,-6.4409
1756.00,-5.8978
1758.00,-6.3142
1760.00,-6.0850
1762.00,-6.3422
1764.00,-6.1073
1766.00,-6.3388
1768.00,-6.3056
1770.00,-6.5183
1772.00,-6.5298
1774.00,-6.8032
1776.00,-6.4930
1778.00,-6.2895
1780.00,-5.8804
1782.00,-6.2461
1784.00,-6.3340
1786.00,-6.7028
1788.00,-6.6516
1790.00,-6.9575
1792.00,-6.7146
1794.00,-6.2844
1796.00,-5.7782
1798.00,-5.9214
1800.00,-5.6124
1802.00,-6.0469
1804.00,-6.5351
1806.00,-6.8318
1808.00,-6.3364
1810.00,-5.9677
1812.00,-6.3450
1814.00,-6.8679
1816.00,-6.6192
1818.00,-6.4004
1820.00,-6.3639
1822.00,-6.3187
1824.00,-6.5601
1826.00,-6.2319
1828.00,-6.5878
1830.00,-6.5389
1832.00,-6.3061
1834.00,-6.1532
1836.00,-5.8803
1838.00,-5.8835
1840.00,-6.0502
1842.00,-5.9367
1844.00,-6.4241
1846.00,-6.7038
1848.00,-6.8228
1850.00,-6.5776
1852.00,-5.8861
1854.00,-6.0350
1856.00,-5.9852
1858.00,-6.6034
1860.00,-6.8038
1862.00,-6.6950
1864.00,-6.2757
1866.00,-5.9205
1868.00,-5.7802
1870.00,-5.9255
1872.00,-6.5339
1874.00,-6.8528
1876.00,-7.3297
1878.00,-6.5583
1880.00,-6.2427
1882.00,-5.4578
1884.00,-5.9442
1886.00,-6.3914
1888.00,-6.2488
1890.00,-6.4024
1892.00,-6.3039
1894.00,-6.3719
1896.00,-6.0248
1898.00,-6.3569
1900.00,-6.8536
1902.00,-6.8082
1904.00,-6.4133
1906.00,-6.2234
1908.00,-6.0378
1910.00,-5.9414
1912.00,-5.7010
1914.00,-6.3782
1916.00,-6.3723
1918.00,-6.1872
1920.00,-6.0400
1922.00,-6.2358
1924.00,-6.5241
1926.00,-6.3630
1928.00,-6.3418
1930.00,-6.3851
1932.00,-6.3998
1934.00,-6.6250
1936.00,-6.4933
1938.00,-6.2477
1940.00,-5.9398
1942.00,-5.7170
1944.00,-5.8156
1946.00,-5.4330
1948.00,-5.9943
1950.00,-6.2279
1952.00,-6.2941
1954.00,-6.1508
1956.00,-5.4988
1958.00,-5.9512
1960.00,-5.8016
1962.00,-6.0472
1964.00,-5.7994
1966.00,-6.0742
1968.00,-6.0104
1970.00,-6.2112
1972.00,-6.3562
1974.00,-6.5524
1976.00,-6.4874
1978.00,-5.7424
1980.00,-5.4220
1982.00,-5.4902
1984.00,-5.4929
1986.00,-5.8371
1988.00,-5.6820
1990.00,-6.2174
1992.00,-6.6016
1994.00,-6.4318
1996.00,-6.5410
1998.00,-5.9402
2000.00,-5.8022
2002.00,-5.6270
2004.00,-6.2496
2006.00,-6.8019
2008.00,-6.4000
2010.00,-5.8657
2012.00,-5.7641
2014.00,-6.3940
2016.00,-6.6728
2018.00,-6.5342
2020.00,-6.2338
2022.00,-5.7741
2024.00,-5.8403
2026.00,-5.3947
2028.00,-5.8110
2030.00,-5.4495
2032.00,-5.8677
2034.00,-6.1512
2036.00,-6.6572
2038.00,-6.3922
2040.00,-6.1617
2042.00,-5.9187
2044.00,-6.2175
2046.00,-6.3246
2048.00,-6.2840
2050.00,-6.6623
2052.00,-6.0260
2054.00,-6.3607
2056.00,-6.2689
2058.00,-7.1234
2060.00,-7.7626
2062.00,-8.0650
2064.00,-7.9332
2066.00,-7.7620
2068.00,-7.3495
2070.00,-6.6625
2072.00,-6.1588
2074.00,-5.9217
2076.00,-6.9653
2078.00,-7.2802
2080.00,-7.9511
2082.00,-8.1481
2084.00,-8.2850
2086.00,-7.6528
2088.00,-7.2916
2090.00,-6.7833
2092.00,-7.4328
2094.00,-7.0027
2096.00,-7.2180
2098.00,-7.8784
2100.00,-8.6714
2102.00,-8.7363
2104.00,-8.5481
2106.00,-7.6758
2108.00,-7.1261
2110.00,-5.9487
2112.00,-6.5039
2114.00,-7.0746
2116.00,-7.2616
2118.00,-6.7253
2120.00,-6.2015
2122.00,-7.2716
2124.00,-7.1384
2126.00,-7.0300
2128.00,-6.5835
2130.00,-7.2421
2132.00,-7.4570
2134.00,-6.6151
2136.00,-6.3402
2138.00,-6.3690
2140.00,-7.2484
2142.00,-7.6313
2144.00,-7.3723
2146.00,-6.8150
2148.00,-6.7211
2150.00,-7.1733
2152.00,-7.1559
2154.00,-6.8680
2156.00,-6.8636
2158.00,-7.2344
2160.00,-7.3108
2162.00,-7.4758
2164.00,-7.2944
2166.00,-6.8931
2168.00,-7.7995
2170.00,-8.2242
2172.00,-8.2537
2174.00,-7.8830
2176.00,-6.8076
2178.00,-7.0874
2180.00,-6.6348
2182.00,-7.4360
2184.00,-7.4524
2186.00,-6.6441
2188.00,-6.8050
2190.00,-6.9967
2192.00,-7.5871
2194.00,-7.3376
2196.00,-6.4221
2198.00,-6.5790
2200.00,-6.7126
2202.00,-7.0972
2204.00,-6.4024
2206.00,-6.3333
2208.00,-5.9364
2210.00,-6.5052
2212.00,-6.5449
2214.00,-7.2996
2216.00,-7.9164
2218.00,-7.9593
2220.00,-8.3682
2222.00,-7.4910
2224.00,-6.6039
2226.00,-5.7098
2228.00,-5.6112
2230.00,-5.6372
2232.00,-6.1274
2234.00,-6.8841
2236.00,-6.5542
2238.00,-6.3392
2240.00,-5.8834
2242.00,-6.1131
2244.00,-5.8662
2246.00,-5.5163
2248.00,-6.4909
2250.00,-7.0930
2252.00,-7.8916
2254.00,-7.6944
2256.00,-7.4444
2258.00,-6.2677
2260.00,-4.9637
2262.00,-3.8000
2264.00,-3.3068
2266.00,-2.8562
2268.00,-2.5981
2270.00,-2.7722
2272.00,-2.8338
2274.00,-2.4415
2276.00,-1.1143
2278.00,-0.5534
2280.00,0.6285
2282.00,0.9862
2284.00,2.3631
2286.00,3.7078
2288.00,5.1844
2290.00,7.1943
2292.00,8.5662
2294.00,10.6845
2296.00,12.7181
2298.00,15.3672
2300.00,17.2097
2302.00,19.2527
2304.00,21.3242
2306.00,24.7063
2308.00,26.7377
2310.00,29.0351
2312.00,31.2014
2314.00,33.9226
2316.00,35.9001
2318.00,36.8182
2320.00,36.5911
2322.00,37.2167
2324.00,36.8074
2326.00,38.3136
2328.00,38.4803
2330.00,40.2172
2332.00,39.0095
2334.00,38.3931
2336.00,38.1021
2338.00,40.6196
2340.00,40.8676
2342.00,40.8311
2344.00,39.3796
2346.00,39.6668
2348.00,39.6476
2350.00,39.5251
2352.00,40.3500
2354.00,39.6146
2356.00,39.9761
2358.00,38.1283
2360.00,39.6875
2362.00,39.6037
2364.00,40.1054
2366.00,38.3129
2368.00,39.0506
2370.00,39.5478
2372.00,40.0160
2374.00,39.1653
2376.00,38.2858
2378.00,36.8354
2380.00,34.4766
2382.00,31.9178
2384.00,30.2268
2386.00,27.0754
2388.00,24.6017
2390.00,22.1486
2392.00,20.5061
2394.00,17.7979
2396.00,14.5762
2398.00,12.3890
2400.00,10.8383
2402.00,9.8056
2404.00,6.5975
2406.00,4.8930
2408.00,3.8141
2410.00,4.3115
2412.00,5.5401
2414.00,2.8468
2416.00,0.2082
2418.00,-2.0970
2420.00,-1.6227
2422.00,-1.0170
2424.00,-0.7733
2426.00,-1.7131
2428.00,-1.7350
2430.00,-4.0972
2432.00,-4.5649
2434.00,-4.5865
2436.00,-4.0693
2438.00,-3.7176
2440.00,-4.0181
2442.00,-5.0735
2444.00,-4.8943
2446.00,-5.7084
2448.00,-4.3563
2450.00,-4.3726
2452.00,-4.7020
2454.00,-4.2279
2456.00,-5.1694
2458.00,-4.1511
2460.00,-5.4753
2462.00,-4.8133
2464.00,-6.3566
2466.00,-6.1807
2468.00,-6.4283
2470.00,-6.1433
2472.00,-6.5642
2474.00,-7.7963
2476.00,-7.5094
2478.00,-7.4115
2480.00,-7.0580
2482.00,-7.5391
2484.00,-7.9018
2486.00,-7.4372
2488.00,-5.6599
2490.00,-5.7633
2492.00,-5.8416
2494.00,-7.7529
2496.00,-7.9499
2498.00,-9.4619
2500.00,-8.7132
2502.00,-9.0832
2504.00,-7.6607
2506.00,-8.1515
2508.00,-8.1016
2510.00,-7.5255
2512.00,-7.2815
2514.00,-6.8072
2516.00,-7.7888
2518.00,-7.8739
2520.00,-8.2414
2522.00,-8.0683
2524.00,-8.4976
2526.00,-8.0055
2528.00,-7.9227
2530.00,-8.2194
2532.00,-7.8856
2534.00,-8.3731
2536.00,-8.0024
2538.00,-8.2355
2540.00,-7.7784
2542.00,-7.9508
2544.00,-7.4626
2546.00,-6.8678
2548.00,-6.1428
2550.00,-7.5877
2552.00,-8.9487
2554.00,-9.9422
2556.00,-8.2172
2558.00,-8.1551
2560.00,-6.8315
2562.00,-7.7778
2564.00,-6.8102
2566.00,-7.2748
2568.00,-7.2390
2570.00,-9.1956
2572.00,-8.5563
2574.00,-8.0256
2576.00,-6.9528
2578.00,-7.4314
2580.00,-7.3392
2582.00,-5.9096
2584.00,-7.0539
2586.00,-8.2204
2588.00,-9.8625
2590.00,-8.8673
2592.00,-8.4913
2594.00,-7.5540
2596.00,-6.1704
2598.00,-6.2322
2600.00,-7.3205
2602.00,-8.8162
2604.00,-7.8668
2606.00,-6.5110
2608.00,-6.7835
2610.00,-7.0101
2612.00,-7.9405
2614.00,-8.8116
2616.00,-6.8822
2618.00,-6.9375
2620.00,-5.9191
2622.00,-7.2273
2624.00,-6.0470
2626.00,-6.3495
2628.00,-7.6078
2630.00,-8.1727
2632.00,-8.0270
2634.00,-6.7355
2636.00,-6.2295
2638.00,-4.8891
2640.00,-6.1823
2642.00,-5.8980
2644.00,-6.5900
2646.00,-6.4707
2648.00,-7.8060
2650.00,-8.7999
2652.00,-8.3887
2654.00,-7.5166
2656.00,-6.7086
2658.00,-7.2504
2660.00,-7.7943
2662.00,-8.8034
2664.00,-8.0018
2666.00,-8.6551
2668.00,-8.7475
2670.00,-10.2226
2672.00,-10.3320
2674.00,-8.5763
2676.00,-8.5216
2678.00,-9.9272
2680.00,-10.2649
2682.00,-8.7919
2684.00,-5.9362
2686.00,-6.6350
2688.00,-8.9275
2690.00,-11.4797
2692.00,-11.9304
2694.00,-9.8707
2696.00,-7.5001
2698.00,-8.7422
2700.00,-9.3736
2702.00,-8.7697
2704.00,-8.8999
2706.00,-7.7833
2708.00,-7.6808
2710.00,-7.6990
2712.00,-7.7572
2714.00,-8.3760
2716.00,-8.4620
2718.00,-8.6922
2720.00,-7.9157
2722.00,-7.7350
2724.00,-7.1375
2726.00,-7.2798
2728.00,-6.8106
2730.00,-7.2302
2732.00,-7.7930
2734.00,-7.5144
2736.00,-7.5315
2738.00,-7.9982
2740.00,-7.8797
2742.00,-7.8500
2744.00,-7.9242
2746.00,-6.8054
2748.00,-6.4165
2750.00,-6.7339
2752.00,-5.9137
2754.00,-6.4455
2756.00,-7.6823
2758.00,-8.0723
2760.00,-8.3105
2762.00,-8.9486
2764.00,-8.9698
2766.00,-8.2205
2768.00,-8.2821
2770.00,-7.7378
2772.00,-7.7463
2774.00,-7.6751
2776.00,-7.8009
2778.00,-7.4298
2780.00,-7.5388
2782.00,-7.1825
2784.00,-7.2246
2786.00,-7.1543
2788.00,-6.7972
2790.00,-7.0223
2792.00,-7.1302
2794.00,-7.5632
2796.00,-8.4325
2798.00,-8.5801
2800.00,-8.3486
2802.00,-8.9816
2804.00,-7.8543
2806.00,-7.5938
2808.00,-7.8783
2810.00,-8.0313
2812.00,-7.2241
2814.00,-7.7398
2816.00,-7.3345
2818.00,-7.6104
2820.00,-7.8023
2822.00,-8.4931
2824.00,-8.4200
2826.00,-8.6857
2828.00,-8.8613
2830.00,-8.4005
2832.00,-7.9780
2834.00,-8.0597
2836.00,-7.7911
2838.00,-7.4118
2840.00,-7.8226
2842.00,-8.0104
2844.00,-7.7819
2846.00,-7.8010
2848.00,-7.9458
2850.00,-8.4562
2852.00,-7.9425
2854.00,-7.8326
2856.00,-8.0092
2858.00,-7.8517
2860.00,-7.3967
2862.00,-7.6655
2864.00,-7.8311
2866.00,-8.1538
2868.00,-8.2246
2870.00,-8.3947
2872.00,-8.0142
2874.00,-8.0845
2876.00,-7.5091
2878.00,-7.9908
2880.00,-7.3607
2882.00,-7.6088
2884.00,-7.9763
2886.00,-8.1340
2888.00,-7.8426
2890.00,-7.8876
2892.00,-7.9974
2894.00,-7.8116
2896.00,-7.4124
2898.00,-7.2122
2900.00,-7.3421
2902.00,-7.7992
2904.00,-7.3477
2906.00,-7.7238
2908.00,-7.3227
2910.00,-8.5998
2912.00,-8.3415
2914.00,-8.6940
2916.00,-8.6950
2918.00,-9.5599
2920.00,-8.4471
2922.00,-7.9769
2924.00,-8.4701
2926.00,-8.5067
2928.00,-8.1287
2930.00,-7.5360
2932.00,-8.1175
2934.00,-7.1468
2936.00,-8.0987
2938.00,-8.8331
2940.00,-9.9127
2942.00,-9.9476
2944.00,-11.3237
2946.00,-10.2411
2948.00,-9.5116
2950.00,-10.1469
2952.00,-10.4869
2954.00,-9.9488
2956.00,-10.5035
2958.00,-10.3806
2960.00,-9.6292
2962.00,-8.4635
2964.00,-7.5230
2966.00,-5.8447
2968.00,-5.3034
2970.00,-4.9000
2972.00,-5.2296
2974.00,-5.0612
2976.00,-6.7573
2978.00,-7.6494
2980.00,-8.2910
2982.00,-7.9708
2984.00,-9.0071
2986.00,-9.5060
2988.00,-8.1384
2990.00,-8.1480
2992.00,-8.2695
2994.00,-9.5021
2996.00,-8.8687
2998.00,-10.0402
3000.00,-9.7356
3002.00,-9.0283
3004.00,-8.5690
3006.00,-8.7916
3008.00,-7.8504
3010.00,-7.7821
3012.00,-7.8932
3014.00,-7.7333
3016.00,-7.6833
3018.00,-8.3743
3020.00,-8.4981
3022.00,-8.4605
3024.00,-8.3557
3026.00,-8.4732
3028.00,-8.8153
3030.00,-8.5457
3032.00,-8.2793
3034.00,-8.8635
3036.00,-8.3006
3038.00,-8.1278
3040.00,-8.5785
3042.00,-8.7667
3044.00,-8.8027
3046.00,-8.7807
3048.00,-8.8148
3050.00,-9.0769
3052.00,-8.9007
3054.00,-9.2256
3056.00,-9.2486
3058.00,-8.9314
3060.00,-8.7709
3062.00,-9.1800
3064.00,-8.9234
3066.00,-9.2505
3068.00,-9.1509
3070.00,-9.0649
3072.00,-9.1843
3074.00,-8.9913
3076.00,-9.1610
3078.00,-9.8379
3080.00,-9.6750
3082.00,-9.6778
3084.00,-9.2666
3086.00,-9.6004
3088.00,-10.5100
3090.00,-10.1707
3092.00,-10.6757
3094.00,-10.8057
3096.00,-10.6243
3098.00,-9.9020
3100.00,-9.9405
3102.00,-10.0135
3104.00,-10.1511
3106.00,-8.9550
3108.00,-9.0315
3110.00,-7.9967
3112.00,-7.5674
3114.00,-7.5099
3116.00,-8.3898
3118.00,-8.5941
3120.00,-8.4491
3122.00,-8.3224
3124.00,-8.4902
3126.00,-8.3295
3128.00,-9.0266
3130.00,-8.9226
3132.00,-8.8113
3134.00,-8.4823
3136.00,-8.8056
3138.00,-8.9759
3140.00,-8.4030
3142.00,-9.1854
3144.00,-8.9567
3146.00,-9.1428
3148.00,-9.4042
3150.00,-8.9750
3152.00,-8.5278
3154.00,-6.9837
3156.00,-6.4473
3158.00,-6.5402
3160.00,-5.5766
3162.00,-6.0058
3164.00,-6.0058
3166.00,-6.9452
3168.00,-7.7472
3170.00,-10.6787
3172.00,-11.3640
3174.00,-12.2139
3176.00,-12.5844
3178.00,-12.2644
3180.00,-12.3721
3182.00,-12.2543
3184.00,-11.2791
3186.00,-10.2990
3188.00,-6.7324
3190.00,-7.7403
3192.00,-6.2780
3194.00,-5.7431
3196.00,-8.6930
3198.00,-9.6905
3200.00,-10.0346
3202.00,-9.7190
3204.00,-10.1764
3206.00,-11.9314
3208.00,-12.1327
3210.00,-13.8222
3212.00,-16.7516
3214.00,-14.8192
3216.00,-13.1470
3218.00,-13.1432
3220.00,-10.4691
3222.00,-11.1604
3224.00,-10.9576
3226.00,-12.4090
3228.00,-13.3880
3230.00,-13.3143
3232.00,-13.4219
3234.00,-15.7849
3236.00,-16.1798
3238.00,-18.9023
3240.00,-17.2504
3242.00,-19.5007
3244.00,-19.8062
3246.00,-16.7641
3248.00,-11.5824
3250.00,-13.2843
3252.00,-14.9427
3254.00,-15.1353
3256.00,-14.6743
3258.00,-16.8780
3260.00,-14.3022
3262.00,-11.1974
3264.00,-10.6695
3266.00,-15.9554
3268.00,-14.6154
3270.00,-10.7921
3272.00,-13.3590
3274.00,-16.2039
3276.00,-13.0228
3278.00,-15.8304
3280.00,-22.5889
3282.00,-25.1617
3284.00,-19.4082
3286.00,-23.8810
3288.00,-25.4112
3290.00,-23.1400
3292.00,-22.2944
3294.00,-25.3375
3296.00,-23.4531
3298.00,-18.1745
3300.00,-18.8622
