"from4 - RawData"
"Wavelength nm.","T%"
190.00,0.0288
192.00,0.0293
194.00,0.0296
196.00,0.0300
198.00,0.0306
200.00,0.0312
202.00,0.0314
204.00,0.0311
206.00,0.0308
208.00,0.0311
210.00,0.0312
212.00,0.0309
214.00,0.0301
216.00,0.0303
218.00,0.0302
220.00,0.0304
222.00,0.0299
224.00,0.0303
226.00,0.0305
228.00,0.0311
230.00,0.0315
232.00,0.0314
234.00,0.0315
236.00,0.0313
238.00,0.0318
240.00,0.0318
242.00,0.0319
244.00,0.0315
246.00,0.0314
248.00,0.0315
250.00,0.0315
252.00,0.0313
254.00,0.0317
256.00,0.0314
258.00,0.0315
260.00,0.0306
262.00,0.0307
264.00,0.0306
266.00,0.0311
268.00,0.0312
270.00,0.0314
272.00,0.0311
274.00,0.0311
276.00,0.0312
278.00,0.0313
280.00,0.0311
282.00,0.0307
284.00,0.0305
286.00,0.0307
288.00,0.0311
290.00,0.0313
292.00,0.0311
294.00,0.0280
296.00,0.0256
298.00,0.0229
300.00,0.0228
302.00,0.0223
304.00,0.0224
306.00,0.0225
308.00,0.0221
310.00,0.0219
312.00,0.0221
314.00,0.0225
316.00,0.0226
318.00,0.0222
320.00,0.0220
322.00,0.0220
324.00,0.0223
326.00,0.0227
328.00,0.0227
330.00,0.0225
332.00,0.0223
334.00,0.0222
336.00,0.0225
338.00,0.0225
340.00,0.0223
342.00,0.0219
344.00,0.0221
346.00,0.0222
348.00,0.0224
350.00,0.0223
352.00,0.0228
354.00,0.0226
356.00,0.0224
358.00,0.0221
360.00,0.0223
362.00,0.0225
364.00,0.0224
366.00,0.0231
368.00,0.0230
370.00,0.0234
372.00,0.0224
374.00,0.0223
376.00,0.0221
378.00,0.0225
380.00,0.0226
382.00,0.0227
384.00,0.0229
386.00,0.0230
388.00,0.0223
390.00,0.0218
392.00,0.0224
394.00,0.0230
396.00,0.0234
398.00,0.0228
400.00,0.0226
402.00,0.0226
404.00,0.0224
406.00,0.0223
408.00,0.0224
410.00,0.0228
412.00,0.0227
414.00,0.0223
416.00,0.0221
418.00,0.0223
420.00,0.0223
422.00,0.0216
424.00,0.0216
426.00,0.0218
428.00,0.0230
430.00,0.0226
432.00,0.0225
434.00,0.0214
436.00,0.0211
438.00,0.0208
440.00,0.0212
442.00,0.0216
444.00,0.0216
446.00,0.0216
448.00,0.0221
450.00,0.0219
452.00,0.0219
454.00,0.0216
456.00,0.0224
458.00,0.0225
460.00,0.0226
462.00,0.0225
464.00,0.0226
466.00,0.0225
468.00,0.0223
470.00,0.0217
472.00,0.0214
474.00,0.0210
476.00,0.0217
478.00,0.0216
480.00,0.0220
482.00,0.0216
484.00,0.0221
486.00,0.0219
488.00,0.0221
490.00,0.0219
492.00,0.0216
494.00,0.0220
496.00,0.0222
498.00,0.0220
500.00,0.0216
502.00,0.0213
504.00,0.0213
506.00,0.0210
508.00,0.0208
510.00,0.0213
512.00,0.0213
514.00,0.0215
516.00,0.0215
518.00,0.0218
520.00,0.0217
522.00,0.0213
524.00,0.0213
526.00,0.0208
528.00,0.0208
530.00,0.0212
532.00,0.0218
534.00,0.0219
536.00,0.0219
538.00,0.0216
540.00,0.0218
542.00,0.0216
544.00,0.0220
546.00,0.0219
548.00,0.0223
550.00,0.0221
552.00,0.0225
554.00,0.0221
556.00,0.0221
558.00,0.0219
560.00,0.0217
562.00,0.0219
564.00,0.0219
566.00,0.0222
568.00,0.0221
570.00,0.0220
572.00,0.0219
574.00,0.0220
576.00,0.0221
578.00,0.0222
580.00,0.0222
582.00,0.0219
584.00,0.0215
586.00,0.0213
588.00,0.0214
590.00,0.0219
592.00,0.0221
594.00,0.0224
596.00,0.0219
598.00,0.0220
600.00,0.0215
602.00,0.0216
604.00,0.0217
606.00,0.0220
608.00,0.0221
610.00,0.0221
612.00,0.0221
614.00,0.0223
616.00,0.0220
618.00,0.0221
620.00,0.0218
622.00,0.0220
624.00,0.0218
626.00,0.0222
628.00,0.0225
630.00,0.0226
632.00,0.0224
634.00,0.0228
636.00,0.0227
638.00,0.0227
640.00,0.0225
642.00,0.0230
644.00,0.0233
646.00,0.0234
648.00,0.0232
650.00,0.0225
652.00,0.0223
654.00,0.0231
656.00,0.0242
658.00,0.0245
660.00,0.0244
662.00,0.0240
664.00,0.0235
666.00,0.0227
668.00,0.0225
670.00,0.0228
672.00,0.0232
674.00,0.0234
676.00,0.0235
678.00,0.0238
680.00,0.0242
682.00,0.0243
684.00,0.0244
686.00,0.0243
688.00,0.0247
690.00,0.0246
692.00,0.0245
694.00,0.0250
696.00,0.0249
698.00,0.0251
700.00,0.0249
702.00,0.0251
704.00,0.0250
706.00,0.0250
708.00,0.0247
710.00,0.0248
712.00,0.0247
714.00,0.0253
716.00,0.0257
718.00,0.0252
720.00,0.0287
722.00,0.0320
724.00,0.0360
726.00,0.0360
728.00,0.0366
730.00,0.0369
732.00,0.0370
734.00,0.0367
736.00,0.0368
738.00,0.0367
740.00,0.0365
742.00,0.0365
744.00,0.0366
746.00,0.0371
748.00,0.0368
750.00,0.0368
752.00,0.0364
754.00,0.0364
756.00,0.0367
758.00,0.0370
760.00,0.0372
762.00,0.0369
764.00,0.0368
766.00,0.0371
768.00,0.0373
770.00,0.0376
772.00,0.0377
774.00,0.0376
776.00,0.0372
778.00,0.0367
780.00,0.0367
782.00,0.0371
784.00,0.0370
786.00,0.0371
788.00,0.0370
790.00,0.0373
792.00,0.0371
794.00,0.0369
796.00,0.0368
798.00,0.0368
800.00,0.0368
802.00,0.0367
804.00,0.0370
806.00,0.0371
808.00,0.0371
810.00,0.0369
812.00,0.0367
814.00,0.0372
816.00,0.0368
818.00,0.0368
820.00,0.0365
822.00,0.0366
824.00,0.0365
826.00,0.0362
828.00,0.0364
830.00,0.0363
832.00,0.0358
834.00,0.0364
836.00,0.0364
838.00,0.0359
840.00,0.0351
842.00,0.0352
844.00,0.0354
846.00,0.0354
848.00,0.0355
850.00,0.0352
852.00,0.0367
854.00,0.0385
856.00,0.0383
858.00,0.0366
860.00,0.0342
862.00,0.0363
864.00,0.0378
866.00,0.0396
868.00,0.0386
870.00,0.0385
872.00,0.0369
874.00,0.0356
876.00,0.0345
878.00,0.0351
880.00,0.0351
882.00,0.0358
884.00,0.0363
886.00,0.0368
888.00,0.0377
890.00,0.0385
892.00,0.0389
894.00,0.0364
896.00,0.0346
898.00,0.0343
900.00,0.0356
902.00,0.0359
904.00,0.0354
906.00,0.0358
908.00,0.0367
910.00,0.0372
912.00,0.0365
914.00,0.0359
916.00,0.0379
918.00,0.0383
920.00,0.0379
922.00,0.0352
924.00,0.0349
926.00,0.0366
928.00,0.0371
930.00,0.0373
932.00,0.0372
934.00,0.0383
936.00,0.0392
938.00,0.0385
940.00,0.0381
942.00,0.0370
944.00,0.0361
946.00,0.0355
948.00,0.0357
950.00,0.0362
952.00,0.0367
954.00,0.0371
956.00,0.0369
958.00,0.0373
960.00,0.0366
962.00,0.0368
964.00,0.0367
966.00,0.0377
968.00,0.0375
970.00,0.0374
972.00,0.0378
974.00,0.0378
976.00,0.0385
978.00,0.0379
980.00,0.0379
982.00,0.0373
984.00,0.0376
986.00,0.0376
988.00,0.0374
990.00,0.0370
992.00,0.0373
994.00,0.0377
996.00,0.0376
998.00,0.0380
1000.00,0.0380
1002.00,0.0384
1004.00,0.0380
1006.00,0.0380
1008.00,0.0381
1010.00,0.0383
1012.00,0.0382
1014.00,0.0383
1016.00,0.0391
1018.00,0.0391
1020.00,0.0390
1022.00,0.0384
1024.00,0.0387
1026.00,0.0385
1028.00,0.0390
1030.00,0.0390
1032.00,0.0392
1034.00,0.0388
1036.00,0.0389
1038.00,0.0392
1040.00,0.0395
1042.00,0.0395
1044.00,0.0394
1046.00,0.0391
1048.00,0.0394
1050.00,0.0397
1052.00,0.0398
1054.00,0.0396
1056.00,0.0396
1058.00,0.0399
1060.00,0.0400
1062.00,0.0403
1064.00,0.0403
1066.00,0.0404
1068.00,0.0402
1070.00,0.0402
1072.00,0.0402
1074.00,0.0403
1076.00,0.0405
1078.00,0.0409
1080.00,0.0409
1082.00,0.0411
1084.00,0.0410
1086.00,0.0410
1088.00,0.0410
1090.00,0.0411
1092.00,0.0414
1094.00,0.0414
1096.00,0.0416
1098.00,0.0417
1100.00,0.0420
1102.00,0.0420
1104.00,0.0421
1106.00,0.0420
1108.00,0.0421
1110.00,0.0420
1112.00,0.0421
1114.00,0.0419
1116.00,0.0417
1118.00,0.0417
1120.00,0.0414
1122.00,0.0415
1124.00,0.0410
1126.00,0.0408
1128.00,0.0404
1130.00,0.0402
1132.00,0.0401
1134.00,0.0399
1136.00,0.0399
1138.00,0.0397
1140.00,0.0399
1142.00,0.0399
1144.00,0.0403
1146.00,0.0403
1148.00,0.0400
1150.00,0.0397
1152.00,0.0392
1154.00,0.0390
1156.00,0.0386
1158.00,0.0384
1160.00,0.0380
1162.00,0.0379
1164.00,0.0378
1166.00,0.0379
1168.00,0.0377
1170.00,0.0376
1172.00,0.0375
1174.00,0.0376
1176.00,0.0377
1178.00,0.0381
1180.00,0.0386
1182.00,0.0391
1184.00,0.0396
1186.00,0.0402
1188.00,0.0407
1190.00,0.0413
1192.00,0.0415
1194.00,0.0418
1196.00,0.0423
1198.00,0.0428
1200.00,0.0433
1202.00,0.0433
1204.00,0.0438
1206.00,0.0443
1208.00,0.0450
1210.00,0.0453
1212.00,0.0459
1214.00,0.0465
1216.00,0.0470
1218.00,0.0471
1220.00,0.0476
1222.00,0.0480
1224.00,0.0484
1226.00,0.0484
1228.00,0.0488
1230.00,0.0489
1232.00,0.0490
1234.00,0.0492
1236.00,0.0496
1238.00,0.0500
1240.00,0.0501
1242.00,0.0504
1244.00,0.0508
1246.00,0.0510
1248.00,0.0513
1250.00,0.0514
1252.00,0.0518
1254.00,0.0522
1256.00,0.0525
1258.00,0.0528
1260.00,0.0530
1262.00,0.0534
1264.00,0.0538
1266.00,0.0542
1268.00,0.0544
1270.00,0.0548
1272.00,0.0548
1274.00,0.0548
1276.00,0.0549
1278.00,0.0550
1280.00,0.0554
1282.00,0.0558
1284.00,0.0564
1286.00,0.0567
1288.00,0.0569
1290.00,0.0571
1292.00,0.0574
1294.00,0.0579
1296.00,0.0581
1298.00,0.0586
1300.00,0.0587
1302.00,0.0593
1304.00,0.0595
1306.00,0.0598
1308.00,0.0600
1310.00,0.0604
1312.00,0.0607
1314.00,0.0611
1316.00,0.0612
1318.00,0.0618
1320.00,0.0624
1322.00,0.0630
1324.00,0.0633
1326.00,0.0637
1328.00,0.0644
1330.00,0.0650
1332.00,0.0651
1334.00,0.0651
1336.00,0.0647
1338.00,0.0642
1340.00,0.0633
1342.00,0.0629
1344.00,0.0623
1346.00,0.0619
1348.00,0.0612
1350.00,0.0610
1352.00,0.0612
1354.00,0.0612
1356.00,0.0617
1358.00,0.0619
1360.00,0.0622
1362.00,0.0624
1364.00,0.0623
1366.00,0.0620
1368.00,0.0620
1370.00,0.0624
1372.00,0.0636
1374.00,0.0648
1376.00,0.0659
1378.00,0.0672
1380.00,0.0680
1382.00,0.0693
1384.00,0.0707
1386.00,0.0724
1388.00,0.0740
1390.00,0.0760
1392.00,0.0779
1394.00,0.0792
1396.00,0.0801
1398.00,0.0804
1400.00,0.0805
1402.00,0.0806
1404.00,0.0803
1406.00,0.0800
1408.00,0.0798
1410.00,0.0797
1412.00,0.0797
1414.00,0.0794
1416.00,0.0795
1418.00,0.0799
1420.00,0.0807
1422.00,0.0813
1424.00,0.0818
1426.00,0.0823
1428.00,0.0826
1430.00,0.0832
1432.00,0.0835
1434.00,0.0841
1436.00,0.0847
1438.00,0.0853
1440.00,0.0861
1442.00,0.0868
1444.00,0.0878
1446.00,0.0888
1448.00,0.0896
1450.00,0.0907
1452.00,0.0922
1454.00,0.0941
1456.00,0.0960
1458.00,0.0980
1460.00,0.1003
1462.00,0.1028
1464.00,0.1055
1466.00,0.1086
1468.00,0.1122
1470.00,0.1163
1472.00,0.1208
1474.00,0.1261
1476.00,0.1321
1478.00,0.1396
1480.00,0.1484
1482.00,0.1590
1484.00,0.1718
1486.00,0.1873
1488.00,0.2067
1490.00,0.2311
1492.00,0.2625
1494.00,0.3028
1496.00,0.3546
1498.00,0.4215
1500.00,0.5086
1502.00,0.6241
1504.00,0.7818
1506.00,0.9977
1508.00,1.2876
1510.00,1.6755
1512.00,2.2061
1514.00,2.9386
1516.00,3.9537
1518.00,5.3460
1520.00,7.1703
1522.00,9.4884
1524.00,12.2510
1526.00,15.4545
1528.00,18.9665
1530.00,22.6478
1532.00,26.2295
1534.00,29.4530
1536.00,32.1910
1538.00,34.4595
1540.00,36.3502
1542.00,37.9863
1544.00,39.4331
1546.00,40.7530
1548.00,41.9234
1550.00,42.9416
1552.00,43.8089
1554.00,44.5320
1556.00,45.1260
1558.00,45.5942
1560.00,45.9519
1562.00,46.2122
1564.00,46.3945
1566.00,46.5103
1568.00,46.5765
1570.00,46.6166
1572.00,46.6151
1574.00,46.5579
1576.00,46.4165
1578.00,46.1873
1580.00,45.8420
1582.00,45.3374
1584.00,44.6322
1586.00,43.6678
1588.00,42.4314
1590.00,40.8732
1592.00,38.9746
1594.00,36.6694
1596.00,33.9828
1598.00,30.9203
1600.00,27.6254
1602.00,24.2023
1604.00,20.8567
1606.00,17.6753
1608.00,14.7432
1610.00,12.0808
1612.00,9.7436
1614.00,7.7743
1616.00,6.1674
1618.00,4.8781
1620.00,3.8456
1622.00,3.0274
1624.00,2.3886
1626.00,1.8956
1628.00,1.5189
1630.00,1.2298
1632.00,1.0078
1634.00,0.8351
1636.00,0.6977
1638.00,0.5885
1640.00,0.5039
1642.00,0.4367
1644.00,0.3828
1646.00,0.3387
1648.00,0.3024
1650.00,-1.9088
1652.00,-3.9866
1654.00,-6.1317
1656.00,-6.3685
1658.00,-6.6234
1660.00,-6.8995
1662.00,-6.7579
1664.00,-6.8148
1666.00,-6.8789
1668.00,-7.3219
1670.00,-7.3001
1672.00,-7.0425
1674.00,-6.8400
1676.00,-6.8234
1678.00,-6.9852
1680.00,-6.9649
1682.00,-6.5294
1684.00,-6.6934
1686.00,-6.7229
1688.00,-7.3851
1690.00,-7.2811
1692.00,-7.2505
1694.00,-6.7789
1696.00,-6.6804
1698.00,-6.7713
1700.00,-7.3440
1702.00,-7.7429
1704.00,-7.6025
1706.00,-7.5172
1708.00,-7.3328
1710.00,-7.5313
1712.00,-7.2890
1714.00,-6.9560
1716.00,-6.5723
1718.00,-6.7914
1720.00,-6.7666
1722.00,-6.9767
1724.00,-6.6972
1726.00,-7.0981
1728.00,-6.9536
1730.00,-6.8504
1732.00,-6.7837
1734.00,-6.8307
1736.00,-6.6256
1738.00,-6.4644
1740.00,-6.5546
1742.00,-7.0084
1744.00,-7.2764
1746.00,-7.1930
1748.00,-7.2473
1750.00,-6.9467
1752.00,-7.1513
1754.00,-6.9150
1756.00,-7.0263
1758.00,-6.5563
1760.00,-6.5337
1762.00,-6.5249
1764.00,-6.7166
1766.00,-6.8370
1768.00,-6.9429
1770.00,-6.8003
1772.00,-6.4890
1774.00,-6.0770
1776.00,-6.7467
1778.00,-6.9779
1780.00,-7.1718
1782.00,-6.5216
1784.00,-6.8581
1786.00,-6.6690
1788.00,-7.1840
1790.00,-7.2170
1792.00,-7.1718
1794.00,-6.9322
1796.00,-6.8906
1798.00,-7.5015
1800.00,-7.5282
1802.00,-7.2537
1804.00,-7.2898
1806.00,-6.9691
1808.00,-7.3010
1810.00,-7.2547
1812.00,-7.6193
1814.00,-7.7170
1816.00,-7.9043
1818.00,-7.4800
1820.00,-6.7449
1822.00,-6.3373
1824.00,-6.8599
1826.00,-7.1024
1828.00,-7.0592
1830.00,-6.7014
1832.00,-6.6883
1834.00,-6.5054
1836.00,-6.6567
1838.00,-7.3232
1840.00,-7.5091
1842.00,-7.4136
1844.00,-7.0775
1846.00,-6.8904
1848.00,-7.2887
1850.00,-7.2133
1852.00,-7.5247
1854.00,-6.8166
1856.00,-6.9455
1858.00,-6.6148
1860.00,-6.9817
1862.00,-6.4218
1864.00,-6.6547
1866.00,-6.6221
1868.00,-6.7984
1870.00,-7.1825
1872.00,-6.5509
1874.00,-7.1051
1876.00,-6.6666
1878.00,-7.6834
1880.00,-7.4330
1882.00,-7.2249
1884.00,-7.2572
1886.00,-6.9598
1888.00,-7.1864
1890.00,-6.8690
1892.00,-6.6764
1894.00,-6.6442
1896.00,-6.1592
1898.00,-6.1456
1900.00,-5.7850
1902.00,-5.9455
1904.00,-6.0193
1906.00,-6.3063
1908.00,-6.3769
1910.00,-6.3324
1912.00,-6.4280
1914.00,-6.3982
1916.00,-7.0086
1918.00,-6.9437
1920.00,-6.7105
1922.00,-6.6165
1924.00,-6.4266
1926.00,-6.8976
1928.00,-6.8774
1930.00,-7.1219
1932.00,-6.9284
1934.00,-6.7058
1936.00,-6.9628
1938.00,-7.0129
1940.00,-6.7870
1942.00,-6.2448
1944.00,-5.9445
1946.00,-6.4858
1948.00,-6.9896
1950.00,-7.2674
1952.00,-6.9894
1954.00,-6.6863
1956.00,-6.7551
1958.00,-6.7601
1960.00,-6.8949
1962.00,-6.7678
1964.00,-6.7275
1966.00,-6.2227
1968.00,-6.1956
1970.00,-5.8359
1972.00,-6.6144
1974.00,-6.5071
1976.00,-6.8606
1978.00,-6.2615
1980.00,-6.2729
1982.00,-6.4652
1984.00,-6.8876
1986.00,-6.5479
1988.00,-6.6542
1990.00,-6.3785
1992.00,-7.1448
1994.00,-6.6781
1996.00,-6.4189
1998.00,-6.5077
2000.00,-6.7239
2002.00,-7.4129
2004.00,-7.9733
2006.00,-7.8784
2008.00,-7.4914
2010.00,-6.7220
2012.00,-7.3098
2014.00,-7.8035
2016.00,-8.1753
2018.00,-7.2708
2020.00,-6.6177
2022.00,-5.8528
2024.00,-6.2425
2026.00,-6.3910
2028.00,-6.3584
2030.00,-6.6985
2032.00,-6.4405
2034.00,-6.7277
2036.00,-6.1953
2038.00,-6.6456
2040.00,-7.0353
2042.00,-6.9221
2044.00,-6.9082
2046.00,-7.0441
2048.00,-7.4863
2050.00,-6.9677
2052.00,-6.2972
2054.00,-6.0833
2056.00,-6.6056
2058.00,-6.4910
2060.00,-6.7486
2062.00,-5.7732
2064.00,-6.3828
2066.00,-6.0776
2068.00,-6.2874
2070.00,-6.3005
2072.00,-5.9382
2074.00,-6.3493
2076.00,-5.8285
2078.00,-6.3799
2080.00,-7.1019
2082.00,-7.5170
2084.00,-7.6622
2086.00,-6.9845
2088.00,-6.9370
2090.00,-6.4631
2092.00,-6.1824
2094.00,-5.5445
2096.00,-5.3720
2098.00,-5.6237
2100.00,-6.3673
2102.00,-7.0123
2104.00,-7.7566
2106.00,-7.4514
2108.00,-8.0076
2110.00,-7.0178
2112.00,-6.8831
2114.00,-5.6783
2116.00,-5.9849
2118.00,-6.3192
2120.00,-7.2929
2122.00,-7.5313
2124.00,-6.8457
2126.00,-6.1980
2128.00,-6.5789
2130.00,-6.7085
2132.00,-7.0104
2134.00,-6.3456
2136.00,-5.8587
2138.00,-5.6094
2140.00,-5.4729
2142.00,-6.4111
2144.00,-6.6937
2146.00,-6.6569
2148.00,-6.9649
2150.00,-6.8629
2152.00,-6.7750
2154.00,-6.8047
2156.00,-7.0978
2158.00,-7.2297
2160.00,-6.4046
2162.00,-5.8259
2164.00,-6.4166
2166.00,-6.0437
2168.00,-5.8327
2170.00,-5.6576
2172.00,-6.9670
2174.00,-7.1780
2176.00,-7.1970
2178.00,-6.5330
2180.00,-6.6475
2182.00,-6.4264
2184.00,-6.0353
2186.00,-5.6098
2188.00,-5.5612
2190.00,-6.7499
2192.00,-7.9219
2194.00,-8.0522
2196.00,-7.4708
2198.00,-6.3695
2200.00,-7.1357
2202.00,-6.4920
2204.00,-5.9832
2206.00,-5.3686
2208.00,-5.8102
2210.00,-6.8015
2212.00,-7.3478
2214.00,-7.6748
2216.00,-7.4944
2218.00,-6.6756
2220.00,-7.2392
2222.00,-7.4647
2224.00,-6.7359
2226.00,-5.1419
2228.00,-5.7463
2230.00,-7.1551
2232.00,-8.1579
2234.00,-7.2687
2236.00,-6.5860
2238.00,-6.9594
2240.00,-6.9509
2242.00,-7.4515
2244.00,-6.8536
2246.00,-7.2343
2248.00,-6.8055
2250.00,-7.5617
2252.00,-7.4554
2254.00,-7.1604
2256.00,-6.3315
2258.00,-6.4331
2260.00,-6.4128
2262.00,-6.9190
2264.00,-6.7039
2266.00,-6.8045
2268.00,-6.1633
2270.00,-5.7322
2272.00,-5.6824
2274.00,-5.9356
2276.00,-5.9353
2278.00,-5.9031
2280.00,-5.8371
2282.00,-6.6292
2284.00,-7.1513
2286.00,-7.9682
2288.00,-6.7358
2290.00,-6.6101
2292.00,-6.4438
2294.00,-7.1663
2296.00,-6.9718
2298.00,-6.1109
2300.00,-6.5067
2302.00,-5.8623
2304.00,-5.9961
2306.00,-6.2367
2308.00,-6.8385
2310.00,-6.5446
2312.00,-6.6466
2314.00,-7.0072
2316.00,-8.6054
2318.00,-8.5273
2320.00,-8.1571
2322.00,-8.3342
2324.00,-7.2408
2326.00,-6.9650
2328.00,-5.4330
2330.00,-5.9081
2332.00,-7.1065
2334.00,-7.3780
2336.00,-6.0186
2338.00,-5.0995
2340.00,-5.5976
2342.00,-6.7294
2344.00,-7.7549
2346.00,-7.5235
2348.00,-7.9237
2350.00,-7.5265
2352.00,-7.1134
2354.00,-7.4377
2356.00,-6.9751
2358.00,-6.8854
2360.00,-5.0700
2362.00,-5.1843
2364.00,-5.3484
2366.00,-6.2393
2368.00,-6.1281
2370.00,-6.2100
2372.00,-7.1161
2374.00,-6.8115
2376.00,-6.5084
2378.00,-7.6920
2380.00,-7.1390
2382.00,-6.5999
2384.00,-3.7071
2386.00,-4.0835
2388.00,-4.6848
2390.00,-5.7095
2392.00,-6.5976
2394.00,-6.3030
2396.00,-6.7802
2398.00,-6.7965
2400.00,-7.0609
2402.00,-6.9262
2404.00,-6.7130
2406.00,-6.9979
2408.00,-7.8169
2410.00,-7.7212
2412.00,-8.6642
2414.00,-8.0127
2416.00,-8.4374
2418.00,-7.9696
2420.00,-7.8344
2422.00,-7.3111
2424.00,-6.2484
2426.00,-6.0616
2428.00,-5.6268
2430.00,-6.7816
2432.00,-6.7791
2434.00,-7.7039
2436.00,-6.1334
2438.00,-6.7053
2440.00,-5.6597
2442.00,-7.0676
2444.00,-6.6592
2446.00,-6.7870
2448.00,-5.3026
2450.00,-5.1415
2452.00,-4.6954
2454.00,-5.0889
2456.00,-5.0304
2458.00,-5.4900
2460.00,-7.0131
2462.00,-7.2602
2464.00,-8.2729
2466.00,-8.8900
2468.00,-9.0538
2470.00,-7.4373
2472.00,-6.5793
2474.00,-5.8271
2476.00,-7.6420
2478.00,-7.0368
2480.00,-6.0594
2482.00,-5.1229
2484.00,-3.5092
2486.00,-5.5367
2488.00,-5.2023
2490.00,-6.1175
2492.00,-5.6997
2494.00,-6.6481
2496.00,-6.3437
2498.00,-6.1120
2500.00,-5.2163
2502.00,-5.4968
2504.00,-5.6982
2506.00,-5.3343
2508.00,-6.0832
2510.00,-6.0719
2512.00,-7.4182
2514.00,-7.6056
2516.00,-7.4718
2518.00,-7.8188
2520.00,-7.2724
2522.00,-6.8187
2524.00,-6.1433
2526.00,-5.0029
2528.00,-5.4241
2530.00,-5.0266
2532.00,-7.0060
2534.00,-6.8958
2536.00,-7.2417
2538.00,-6.7244
2540.00,-7.0180
2542.00,-6.8409
2544.00,-5.6857
2546.00,-6.2332
2548.00,-6.3134
2550.00,-7.1023
2552.00,-6.3628
2554.00,-6.0249
2556.00,-5.9210
2558.00,-5.6710
2560.00,-6.9453
2562.00,-6.3485
2564.00,-6.5389
2566.00,-4.9886
2568.00,-6.2006
2570.00,-6.4652
2572.00,-7.3011
2574.00,-6.5134
2576.00,-6.2003
2578.00,-5.8598
2580.00,-6.5677
2582.00,-7.5691
2584.00,-7.9085
2586.00,-7.9487
2588.00,-7.8101
2590.00,-8.8556
2592.00,-8.9782
2594.00,-7.9758
2596.00,-5.3461
2598.00,-4.3152
2600.00,-2.4014
2602.00,-5.6739
2604.00,-5.2708
2606.00,-6.4862
2608.00,-2.4546
2610.00,-1.9214
2612.00,-2.4952
2614.00,-5.9503
2616.00,-8.5053
2618.00,-9.6833
2620.00,-6.4465
2622.00,-6.4296
2624.00,-5.2640
2626.00,-7.8803
2628.00,-7.1118
2630.00,-7.6746
2632.00,-7.0745
2634.00,-6.4418
2636.00,-6.5797
2638.00,-6.0141
2640.00,-6.7610
2642.00,-6.5269
2644.00,-7.4474
2646.00,-6.9000
2648.00,-6.7008
2650.00,-6.5889
2652.00,-6.3383
2654.00,-6.7397
2656.00,-6.3518
2658.00,-7.1280
2660.00,-6.9580
2662.00,-6.1318
2664.00,-5.7480
2666.00,-6.5480
2668.00,-5.8963
2670.00,-5.1642
2672.00,-4.5971
2674.00,-5.5630
2676.00,-6.7323
2678.00,-7.0231
2680.00,-9.6660
2682.00,-9.0002
2684.00,-7.4251
2686.00,-4.7871
2688.00,-5.1592
2690.00,-6.5998
2692.00,-7.0153
2694.00,-7.7612
2696.00,-6.8182
2698.00,-6.1774
2700.00,-5.7942
2702.00,-6.0658
2704.00,-6.2448
2706.00,-6.9758
2708.00,-6.8088
2710.00,-6.7042
2712.00,-6.2277
2714.00,-6.3639
2716.00,-6.0597
2718.00,-7.0447
2720.00,-7.1602
2722.00,-7.8667
2724.00,-7.7078
2726.00,-7.3046
2728.00,-7.0655
2730.00,-7.0524
2732.00,-6.1837
2734.00,-6.1332
2736.00,-6.3560
2738.00,-5.8877
2740.00,-5.9461
2742.00,-6.4912
2744.00,-6.5439
2746.00,-6.2919
2748.00,-5.9777
2750.00,-6.2924
2752.00,-5.9704
2754.00,-6.0363
2756.00,-6.2537
2758.00,-6.3468
2760.00,-5.8272
2762.00,-6.1780
2764.00,-5.8642
2766.00,-6.0642
2768.00,-5.8509
2770.00,-5.4991
2772.00,-5.2543
2774.00,-5.5327
2776.00,-5.5490
2778.00,-5.1793
2780.00,-5.7270
2782.00,-6.8044
2784.00,-7.0856
2786.00,-7.5660
2788.00,-8.0750
2790.00,-8.3997
2792.00,-7.3612
2794.00,-7.0081
2796.00,-7.0038
2798.00,-6.7929
2800.00,-5.5777
2802.00,-6.5497
2804.00,-6.8340
2806.00,-6.1796
2808.00,-6.3635
2810.00,-7.0362
2812.00,-6.4626
2814.00,-5.8726
2816.00,-6.0136
2818.00,-6.2352
2820.00,-5.7854
2822.00,-5.8618
2824.00,-6.2962
2826.00,-5.7646
2828.00,-5.2989
2830.00,-5.8273
2832.00,-5.6448
2834.00,-6.0001
2836.00,-6.4810
2838.00,-6.6032
2840.00,-6.3188
2842.00,-6.2188
2844.00,-5.5287
2846.00,-5.8203
2848.00,-5.6684
2850.00,-5.9017
2852.00,-6.0559
2854.00,-6.0340
2856.00,-5.6142
2858.00,-5.9801
2860.00,-5.8033
2862.00,-5.3224
2864.00,-5.1979
2866.00,-4.7730
2868.00,-4.1277
2870.00,-2.9722
2872.00,-1.8277
2874.00,-1.0333
2876.00,-0.6492
2878.00,-0.0843
2880.00,-0.0513
2882.00,-0.1568
2884.00,0.5799
2886.00,1.2653
2888.00,3.1060
2890.00,3.9834
2892.00,4.7566
2894.00,5.6304
2896.00,6.4764
2898.00,5.4544
2900.00,5.8088
2902.00,5.2221
2904.00,4.7202
2906.00,4.4259
2908.00,4.7132
2910.00,4.1255
2912.00,4.6417
2914.00,4.0733
2916.00,3.8970
2918.00,2.7356
2920.00,1.7284
2922.00,1.3873
2924.00,0.9374
2926.00,0.4324
2928.00,1.0381
2930.00,1.2692
2932.00,0.5973
2934.00,-0.0250
2936.00,-0.7060
2938.00,-1.4886
2940.00,-2.3534
2942.00,-3.0119
2944.00,-2.8907
2946.00,-3.3732
2948.00,-3.3363
2950.00,-2.7930
2952.00,-2.5755
2954.00,-2.5304
2956.00,-2.6742
2958.00,-2.2352
2960.00,-2.5895
2962.00,-3.0790
2964.00,-3.2577
2966.00,-2.3440
2968.00,-2.1338
2970.00,-0.9662
2972.00,-0.7811
2974.00,-0.5845
2976.00,-0.7344
2978.00,-0.6858
2980.00,-0.7988
2982.00,-1.7110
2984.00,-1.5828
2986.00,-1.4087
2988.00,-2.8844
2990.00,-3.4394
2992.00,-2.8834
2994.00,-3.9097
2996.00,-5.8310
2998.00,-5.5381
3000.00,-6.2655
3002.00,-4.5834
3004.00,-4.4336
3006.00,-4.2146
3008.00,-3.5007
3010.00,-2.4398
3012.00,-1.8453
3014.00,-1.9132
3016.00,-2.2137
3018.00,-2.0788
3020.00,-2.0619
3022.00,-2.4022
3024.00,-2.0188
3026.00,-1.9563
3028.00,-1.7510
3030.00,-1.8801
3032.00,-1.1436
3034.00,-0.2561
3036.00,-0.0284
3038.00,0.2285
3040.00,0.5252
3042.00,0.9863
3044.00,0.6726
3046.00,0.9207
3048.00,1.1020
3050.00,1.5623
3052.00,1.4437
3054.00,1.9976
3056.00,1.9674
3058.00,2.5674
3060.00,2.4680
3062.00,2.3002
3064.00,1.9953
3066.00,1.3807
3068.00,0.7276
3070.00,0.9216
3072.00,0.8221
3074.00,0.7793
3076.00,0.1758
3078.00,0.3764
3080.00,1.3758
3082.00,2.0765
3084.00,2.4479
3086.00,2.6117
3088.00,2.3356
3090.00,2.3720
3092.00,3.1442
3094.00,3.2623
3096.00,3.3917
3098.00,3.2868
3100.00,2.2424
3102.00,2.6957
3104.00,2.6350
3106.00,2.6787
3108.00,2.1508
3110.00,2.0141
3112.00,2.3385
3114.00,2.1403
3116.00,2.6668
3118.00,3.2463
3120.00,2.7155
3122.00,3.3167
3124.00,2.9170
3126.00,3.2701
3128.00,2.7513
3130.00,2.7818
3132.00,3.6193
3134.00,3.1848
3136.00,4.0953
3138.00,4.3923
3140.00,4.3673
3142.00,4.7362
3144.00,4.0865
3146.00,4.9461
3148.00,4.6851
3150.00,3.4039
3152.00,2.6797
3154.00,2.4973
3156.00,2.2553
3158.00,1.9720
3160.00,1.7448
3162.00,2.1443
3164.00,2.8229
3166.00,3.8822
3168.00,4.0746
3170.00,4.4214
3172.00,3.5733
3174.00,5.1099
3176.00,5.0282
3178.00,6.4028
3180.00,5.5970
3182.00,3.9269
3184.00,1.8221
3186.00,2.3703
3188.00,2.5142
3190.00,1.8138
3192.00,0.9846
3194.00,-2.1916
3196.00,-3.2626
3198.00,-1.8250
3200.00,-1.1639
3202.00,-0.1069
3204.00,1.2870
3206.00,1.6081
3208.00,3.8381
3210.00,3.4571
3212.00,9.0401
3214.00,9.8628
3216.00,8.5852
3218.00,7.8117
3220.00,10.6750
3222.00,8.6975
3224.00,9.7756
3226.00,8.0982
3228.00,9.4571
3230.00,7.6795
3232.00,6.4110
3234.00,19.2258
3236.00,15.3469
3238.00,11.1297
3240.00,9.8390
3242.00,6.6092
3244.00,0.3153
3246.00,-1.0317
3248.00,1.9501
3250.00,1.7239
3252.00,-8.7922
3254.00,-4.7883
3256.00,-3.1254
3258.00,-1.9602
3260.00,1.9235
3262.00,8.7170
3264.00,9.3497
3266.00,13.8159
3268.00,15.2199
3270.00,9.2201
3272.00,15.7203
3274.00,14.8794
3276.00,9.5190
3278.00,5.4572
3280.00,2.2240
3282.00,3.7378
3284.00,-2.4982
3286.00,-4.0719
3288.00,11.8958
3290.00,2.1563
3292.00,5.1187
3294.00,13.0311
3296.00,17.3109
3298.00,22.6386
3300.00,22.8634
